'meshr003.bt9' 'Mar 31 2011 03:55' 'Q'      25000.    1  'NEUT'   13  'RAW'
  Filename         Date            Scan       Mon    Prf  Base   #pts  Type
meshr 40-PG-10-S-40 -PG-200  triple  axis L021411 
  40  48  40  99      30 30 30         0  1  1   0.000     1  0  0
 Collimation        Mosaic              Xstal Orientation
     3.909     3.909     3.909    90.000    90.000    90.000
Lattice Parameters in real space
     0.000     0.000       14.700        3.354   3.354      0.00000   0.00000
    E center  Delta E      EA fixed      M-dsp   A-dsp     Tmp strt   Tmp inc
  0.492   0.496   0.496    0.0000  0.0020  0.0020      0.0000
   Q (hkl scan center)        Delta Q (hkl)            Hfield
    Q(x)    Q(y)    Q(z)     E       min       Counts
  0.4920  0.4840  0.4840   0.0000    0.26           5
  0.4920  0.4860  0.4860   0.0000    0.26           8
  0.4920  0.4880  0.4880   0.0000    0.26          10
  0.4920  0.4900  0.4900   0.0000    0.26          14
  0.4920  0.4920  0.4920   0.0000    0.26          14
  0.4920  0.4940  0.4940   0.0000    0.26          12
  0.4920  0.4960  0.4960   0.0000    0.26          15
  0.4920  0.4980  0.4980   0.0000    0.26          16
  0.4920  0.5000  0.5000   0.0000    0.26          11
  0.4920  0.5020  0.5020   0.0000    0.26          10
  0.4920  0.5040  0.5040   0.0000    0.26           7
  0.4920  0.5060  0.5060   0.0000    0.26           4
  0.4920  0.5080  0.5080   0.0000    0.26           9
