 Motor no.  3     Motor no.  4    Intensity   Jan 31 2008 13:27
  135.1799       90.3597          1253
  135.2299       90.4597          1564
  135.2799       90.5597          1942
  135.3299       90.6597          2341
  135.3799       90.7597          2480
  135.4299       90.8597          2504
  135.4799       90.9597          2414
  135.5299       91.0597          2181
  135.5799       91.1597          1823
  135.6299       91.2597          1349
  135.6799       91.3597           944
  135.7299       91.4597           620
  135.7799       91.5597           386
  135.8299       91.6597           245
  135.8799       91.7597           214
  135.9299       91.8597           185
  135.9799       91.9597           163
  136.0299       92.0597           147
  136.0799       92.1597            90
  136.1299       92.2597            99
  136.1799       92.3597            78
